# IZ, NS, NGE:  1  0  187
# Shell:
# Eion (eV)
 5.00000E+01 1.58335E+05
 5.50000E+01 1.19158E+05
 6.00000E+01 9.17977E+04
 7.00000E+01 5.76519E+04
 8.00000E+01 3.83952E+04
 9.00000E+01 2.67655E+04
 1.00000E+02 1.93505E+04
 1.10000E+02 1.44038E+04
 1.25000E+02 9.67546E+03
 1.40000E+02 6.78784E+03
 1.50000E+02 5.46364E+03
 1.62019E+02 4.28086E+03
 1.75000E+02 3.35926E+03
 2.00000E+02 2.19745E+03
 2.20000E+02 1.62198E+03
 2.50000E+02 1.07657E+03
 2.73861E+02 8.01429E+02
 3.00000E+02 5.98482E+02
 3.50000E+02 3.63357E+02
 4.00000E+02 2.35309E+02
 4.50000E+02 1.60067E+02
 5.00000E+02 1.13356E+02
 5.50000E+02 8.28988E+01
 6.00000E+02 6.21965E+01
 6.48074E+02 4.81561E+01
 7.00000E+02 3.73746E+01
 8.00000E+02 2.40044E+01
 9.00000E+02 1.62234E+01
 1.00000E+03 1.14168E+01
 1.10000E+03 8.30297E+00
 1.25000E+03 5.41162E+00
 1.40000E+03 3.69892E+00
 1.50000E+03 2.93321E+00
 1.62019E+03 2.26013E+00
 1.75000E+03 1.74515E+00
 2.00000E+03 1.11149E+00
 2.20000E+03 8.05110E-01
 2.50000E+03 5.22029E-01
 2.73861E+03 3.82313E-01
 2.86633E+03 3.27592E-01
 3.00000E+03 2.81036E-01
 3.50000E+03 1.66298E-01
 4.00000E+03 1.05468E-01
 4.50000E+03 7.05426E-02
 5.00000E+03 4.92053E-02
 5.50000E+03 3.55099E-02
 6.00000E+03 2.63586E-02
 6.48074E+03 2.02134E-02
 7.00000E+03 1.55371E-02
 8.00000E+03 9.82440E-03
 9.00000E+03 6.55454E-03
 1.00000E+04 4.56249E-03
 1.10000E+04 3.28683E-03
 1.25000E+04 2.11660E-03
 1.40000E+04 1.43246E-03
 1.50000E+04 1.12933E-03
 1.62019E+04 8.64652E-04
 1.75000E+04 6.63765E-04
 2.00000E+04 4.18781E-04
 2.20000E+04 3.01427E-04
 2.50000E+04 1.93920E-04
 2.73861E+04 1.41278E-04
 2.86633E+04 1.20766E-04
 3.00000E+04 1.03373E-04
 3.50000E+04 6.07370E-05
 3.74166E+04 4.82165E-05
 4.00000E+04 3.83254E-05
 4.50000E+04 2.55396E-05
 5.00000E+04 1.77683E-05
 5.50000E+04 1.28006E-05
 6.00000E+04 9.49169E-06
 6.48074E+04 7.27521E-06
 7.00000E+04 5.59233E-06
 8.00000E+04 3.54042E-06
 9.00000E+04 2.36813E-06
 1.00000E+05 1.65437E-06
 1.10000E+05 1.19719E-06
 1.17260E+05 9.63868E-07
 1.25000E+05 7.77258E-07
 1.40000E+05 5.31100E-07
 1.50000E+05 4.21686E-07
 1.62019E+05 3.25852E-07
 1.75000E+05 2.52800E-07
 1.87083E+05 2.02929E-07
 2.00000E+05 1.63112E-07
 2.20000E+05 1.19722E-07
 2.34521E+05 9.74477E-08
 2.50000E+05 7.95017E-08
 2.73861E+05 5.95232E-08
 2.86633E+05 5.16490E-08
 3.00000E+05 4.49159E-08
 3.24037E+05 3.54765E-08
 3.36768E+05 3.15658E-08
 3.50000E+05 2.81197E-08
 3.74166E+05 2.30569E-08
 3.86867E+05 2.09104E-08
 4.00000E+05 1.89836E-08
 4.24264E+05 1.60299E-08
 4.50000E+05 1.35758E-08
 4.74342E+05 1.17273E-08
 5.00000E+05 1.01578E-08
 5.24404E+05 8.93753E-09
 5.50000E+05 7.88163E-09
 5.74456E+05 7.03996E-09
 6.00000E+05 6.29947E-09
 6.23574E+05 5.71566E-09
 6.48074E+05 5.19406E-09
 6.73537E+05 4.72956E-09
 7.00000E+05 4.31450E-09
 7.48331E+05 3.68963E-09
 7.73735E+05 3.41771E-09
 8.00000E+05 3.16967E-09
 8.48528E+05 2.78221E-09
 9.00000E+05 2.45136E-09
 9.48683E+05 2.19486E-09
 1.00000E+06 1.97064E-09
 1.04881E+06 1.79153E-09
 1.10000E+06 1.63219E-09
 1.17260E+06 1.44482E-09
 1.25000E+06 1.28390E-09
 1.32288E+06 1.15932E-09
 1.40000E+06 1.04957E-09
 1.50000E+06 9.32834E-10
 1.55893E+06 8.74513E-10
 1.62019E+06 8.20710E-10
 1.68384E+06 7.71130E-10
 1.75000E+06 7.25306E-10
 1.87083E+06 6.53404E-10
 2.00000E+06 5.90139E-10
 2.09762E+06 5.49548E-10
 2.20000E+06 5.12339E-10
 2.34521E+06 4.67114E-10
 2.50000E+06 4.26696E-10
 2.73861E+06 3.75974E-10
 3.00000E+06 3.32499E-10
 3.24037E+06 3.00267E-10
 3.50000E+06 2.71666E-10
 3.74166E+06 2.49426E-10
 4.00000E+06 2.29300E-10
 4.50000E+06 1.98173E-10
 5.00000E+06 1.74373E-10
 5.50000E+06 1.55604E-10
 6.00000E+06 1.40436E-10
 6.48074E+06 1.28359E-10
 7.00000E+06 1.17447E-10
 8.00000E+06 1.00869E-10
 9.00000E+06 8.83597E-11
 1.00000E+07 7.85918E-11
 1.10000E+07 7.07565E-11
 1.25000E+07 6.15387E-11
 1.40000E+07 5.44363E-11
 1.50000E+07 5.05437E-11
 1.75000E+07 4.28716E-11
 2.00000E+07 3.72165E-11
 2.20000E+07 3.36618E-11
 2.50000E+07 2.94413E-11
 3.00000E+07 2.43498E-11
 3.50000E+07 2.07580E-11
 4.00000E+07 1.80889E-11
 4.50000E+07 1.60275E-11
 5.00000E+07 1.43876E-11
 5.50000E+07 1.30520E-11
 6.00000E+07 1.19432E-11
 7.00000E+07 1.02085E-11
 8.00000E+07 8.91373E-12
 9.00000E+07 7.91035E-12
 1.00000E+08 7.10997E-12
 1.10000E+08 6.45665E-12
 1.25000E+08 5.67450E-12
 1.40000E+08 5.06135E-12
 1.50000E+08 4.72125E-12
 1.75000E+08 4.04219E-12
 2.00000E+08 3.53390E-12
 2.20000E+08 3.21088E-12
 2.50000E+08 2.82373E-12
 3.00000E+08 2.35123E-12
 3.50000E+08 2.01418E-12
 4.00000E+08 1.76165E-12
 4.50000E+08 1.56539E-12
 5.00000E+08 1.40847E-12
 5.50000E+08 1.28015E-12
 6.00000E+08 1.17326E-12
 7.00000E+08 1.00536E-12
 8.00000E+08 8.79499E-13
 9.00000E+08 7.81646E-13
 9.48683E+08 7.42107E-13
 1.00000E+09 7.03387E-13
