#>>>>>>>>>>>>>>>>>>>>>>>>>>>>>>>>>>>>>>>>>>>>>>>>>>>>>>>>>>>>
# [SECTION REPORT IMPACT DETECTOR - ENERGY SPECTRUM]
# detector number:  1
# Units are 1/(eV*history)
#
# Linear scale
# Energy     min    ,    max    , number of bins
#        0.00000e+00 6.10000e+06    120
#
#             |      Total spectrum     |            electron     |               gamma     |            positron     |
#             |                         |                         |                         |                         |
# Energy (eV) |     prob    : +-2sigma  |     prob    : +-2sigma  |     prob    : +-2sigma  |     prob    : +-2sigma  |
  2.54167E+04   3.31176E-10   1.507E-11   0.00000E+00   0.000E+00   3.31176E-10   1.507E-11   0.00000E+00   0.000E+00 
  7.62500E+04   7.28994E-09   7.144E-11   2.10406E-11   3.794E-12   7.26838E-09   7.132E-11   5.13186E-13   5.926E-13 
  1.27083E+05   1.90683E-09   3.632E-11   1.09172E-09   2.749E-11   7.92188E-10   2.336E-11   2.29223E-11   3.960E-12 
  1.77917E+05   6.73813E-09   7.003E-11   1.15330E-09   2.817E-11   5.56242E-09   6.387E-11   2.24091E-11   3.916E-12 
  2.28750E+05   2.02517E-08   1.302E-10   1.14851E-09   2.813E-11   1.90734E-08   1.269E-10   2.97648E-11   4.513E-12 
  2.79583E+05   3.43321E-08   1.863E-10   1.05802E-09   2.696E-11   3.32404E-08   1.841E-10   3.36992E-11   4.802E-12 
  3.30417E+05   4.28370E-08   2.240E-10   9.77448E-10   2.596E-11   4.18260E-08   2.223E-10   3.35282E-11   4.790E-12 
  3.81250E+05   4.66389E-08   2.472E-10   8.54968E-10   2.422E-11   4.57497E-08   2.458E-10   3.42124E-11   4.838E-12 
  4.32083E+05   4.76308E-08   2.587E-10   7.79359E-10   2.314E-11   4.68108E-08   2.576E-10   4.07128E-11   5.278E-12 
  4.82917E+05   4.68924E-08   2.631E-10   6.73642E-10   2.151E-11   4.61753E-08   2.621E-10   4.34498E-11   5.452E-12 
  5.33750E+05   5.49624E-08   2.778E-10   6.18731E-10   2.058E-11   5.43036E-08   2.768E-10   4.00285E-11   5.233E-12 
  5.84583E+05   4.26136E-08   2.603E-10   5.65360E-10   1.968E-11   4.20135E-08   2.595E-10   3.47256E-11   4.898E-12 
  6.35417E+05   4.02264E-08   2.552E-10   5.14555E-10   1.877E-11   3.96681E-08   2.544E-10   4.37919E-11   5.495E-12 
  6.86250E+05   3.80493E-08   2.504E-10   4.73500E-10   1.806E-11   3.75325E-08   2.497E-10   4.32787E-11   5.442E-12 
  7.37083E+05   3.61461E-08   2.462E-10   4.24234E-10   1.704E-11   3.56781E-08   2.455E-10   4.37919E-11   5.474E-12 
  7.87917E+05   3.41611E-08   2.413E-10   4.07983E-10   1.672E-11   3.37180E-08   2.406E-10   3.50677E-11   4.898E-12 
  8.38750E+05   3.20488E-08   2.348E-10   3.69152E-10   1.590E-11   3.16482E-08   2.342E-10   3.14754E-11   4.641E-12 
  8.89583E+05   3.01013E-08   2.291E-10   3.53585E-10   1.556E-11   2.97143E-08   2.285E-10   3.33571E-11   4.777E-12 
  9.40417E+05   2.85526E-08   2.239E-10   3.37847E-10   1.522E-11   2.81751E-08   2.233E-10   3.96864E-11   5.211E-12 
  9.91250E+05   2.66498E-08   2.168E-10   3.09964E-10   1.457E-11   2.62999E-08   2.162E-10   3.98574E-11   5.222E-12 
  1.04208E+06   2.52412E-08   2.122E-10   2.94056E-10   1.420E-11   2.49131E-08   2.116E-10   3.40413E-11   4.826E-12 
  1.09292E+06   2.41789E-08   2.088E-10   2.82766E-10   1.396E-11   2.38597E-08   2.083E-10   3.64362E-11   4.993E-12 
  1.14375E+06   2.28174E-08   2.035E-10   2.74212E-10   1.370E-11   2.25085E-08   2.030E-10   3.47256E-11   4.874E-12 
  1.19458E+06   2.15750E-08   1.981E-10   2.38289E-10   1.277E-11   2.13056E-08   1.976E-10   3.11333E-11   4.615E-12 
  1.24542E+06   2.03802E-08   1.933E-10   2.19644E-10   1.226E-11   2.01294E-08   1.928E-10   3.11333E-11   4.615E-12 
  1.29625E+06   1.94118E-08   1.899E-10   2.16393E-10   1.217E-11   1.91641E-08   1.894E-10   3.13043E-11   4.628E-12 
  1.34708E+06   1.84215E-08   1.851E-10   1.96892E-10   1.163E-11   1.82003E-08   1.846E-10   2.42908E-11   4.077E-12 
  1.39792E+06   1.75559E-08   1.819E-10   1.92958E-10   1.149E-11   1.73286E-08   1.814E-10   3.43835E-11   4.850E-12 
  1.44875E+06   1.65853E-08   1.770E-10   1.76707E-10   1.100E-11   1.63799E-08   1.766E-10   2.87384E-11   4.434E-12 
  1.49958E+06   1.58982E-08   1.741E-10   1.78247E-10   1.104E-11   1.56973E-08   1.737E-10   2.25802E-11   3.931E-12 
  1.55042E+06   1.50752E-08   1.698E-10   1.64391E-10   1.061E-11   1.48853E-08   1.694E-10   2.54882E-11   4.176E-12 
  1.60125E+06   1.44734E-08   1.663E-10   1.56864E-10   1.037E-11   1.42903E-08   1.659E-10   2.61725E-11   4.232E-12 
  1.65208E+06   1.38167E-08   1.633E-10   1.51732E-10   1.020E-11   1.36396E-08   1.629E-10   2.53172E-11   4.162E-12 
  1.70292E+06   1.30659E-08   1.590E-10   1.42495E-10   9.884E-12   1.29001E-08   1.587E-10   2.32644E-11   3.990E-12 
  1.75375E+06   1.24417E-08   1.555E-10   1.42153E-10   9.861E-12   1.22788E-08   1.551E-10   2.06985E-11   3.763E-12 
  1.80458E+06   1.19191E-08   1.527E-10   1.26415E-10   9.299E-12   1.17730E-08   1.523E-10   1.96721E-11   3.669E-12 
  1.85542E+06   1.14694E-08   1.505E-10   1.27099E-10   9.337E-12   1.13197E-08   1.502E-10   2.25802E-11   3.931E-12 
  1.90625E+06   1.09894E-08   1.476E-10   1.17862E-10   8.992E-12   1.08501E-08   1.472E-10   2.13828E-11   3.825E-12 
  1.95708E+06   1.04859E-08   1.443E-10   1.15638E-10   8.894E-12   1.03518E-08   1.440E-10   1.84747E-11   3.555E-12 
  2.00792E+06   1.00239E-08   1.409E-10   1.09480E-10   8.654E-12   9.89696E-09   1.406E-10   1.74483E-11   3.455E-12 
  2.05875E+06   9.70862E-09   1.397E-10   9.76764E-11   8.189E-12   9.59213E-09   1.394E-10   1.88168E-11   3.588E-12 
  2.10958E+06   9.25770E-09   1.362E-10   9.63079E-11   8.117E-12   9.14634E-09   1.359E-10   1.50535E-11   3.209E-12 
  2.16042E+06   8.85947E-09   1.336E-10   9.23735E-11   7.949E-12   8.75461E-09   1.333E-10   1.24875E-11   2.923E-12 
  2.21125E+06   8.54934E-09   1.316E-10   8.50178E-11   7.626E-12   8.44721E-09   1.313E-10   1.71062E-11   3.455E-12 
  2.26208E+06   8.23424E-09   1.293E-10   8.55310E-11   7.665E-12   8.13417E-09   1.290E-10   1.45403E-11   3.154E-12 
  2.31292E+06   7.84336E-09   1.262E-10   7.83464E-11   7.337E-12   7.75236E-09   1.260E-10   1.26586E-11   2.943E-12 
  2.36375E+06   7.53083E-09   1.242E-10   7.21882E-11   7.027E-12   7.44838E-09   1.240E-10   1.02637E-11   2.650E-12 
  2.41458E+06   7.34694E-09   1.230E-10   7.15039E-11   6.994E-12   7.26517E-09   1.228E-10   1.02637E-11   2.650E-12 
  2.46542E+06   7.04553E-09   1.205E-10   6.34640E-11   6.589E-12   6.96958E-09   1.203E-10   1.24875E-11   2.923E-12 
  2.51625E+06   6.88473E-09   1.198E-10   6.43193E-11   6.633E-12   6.80895E-09   1.196E-10   1.14612E-11   2.800E-12 
  2.56708E+06   6.56074E-09   1.168E-10   5.73058E-11   6.261E-12   6.49351E-09   1.166E-10   9.92160E-12   2.606E-12 
  2.61792E+06   6.31578E-09   1.150E-10   5.49109E-11   6.129E-12   6.25215E-09   1.148E-10   8.72416E-12   2.443E-12 
  2.66875E+06   6.10024E-09   1.127E-10   5.71347E-11   6.271E-12   6.03609E-09   1.125E-10   7.01354E-12   2.191E-12 
  2.71958E+06   5.87991E-09   1.107E-10   5.57662E-11   6.177E-12   5.81628E-09   1.105E-10   7.86885E-12   2.320E-12 
  2.77042E+06   5.62555E-09   1.089E-10   4.99501E-11   5.846E-12   5.56909E-09   1.087E-10   6.50036E-12   2.109E-12 
  2.82125E+06   5.41839E-09   1.067E-10   4.92659E-11   5.806E-12   5.36314E-09   1.066E-10   5.98717E-12   2.024E-12 
  2.87208E+06   5.20011E-09   1.043E-10   5.04633E-11   5.896E-12   5.14332E-09   1.041E-10   6.32929E-12   2.081E-12 
  2.92292E+06   5.14743E-09   1.047E-10   4.00285E-11   5.233E-12   5.10244E-09   1.046E-10   4.96080E-12   1.842E-12 
  2.97375E+06   4.88331E-09   1.015E-10   3.93443E-11   5.188E-12   4.83815E-09   1.014E-10   5.81611E-12   1.995E-12 
  3.02458E+06   4.76134E-09   1.006E-10   4.63578E-11   5.652E-12   4.70882E-09   1.005E-10   6.15823E-12   2.053E-12 
  3.07542E+06   4.61320E-09   9.932E-11   3.72915E-11   5.051E-12   4.57095E-09   9.917E-11   4.96080E-12   1.842E-12 
  3.12625E+06   4.49038E-09   9.868E-11   3.52388E-11   4.910E-12   4.45001E-09   9.855E-11   5.13186E-12   1.874E-12 
  3.17708E+06   4.27860E-09   9.587E-11   3.33571E-11   4.777E-12   4.23960E-09   9.573E-11   5.64505E-12   1.965E-12 
  3.22792E+06   4.08120E-09   9.345E-11   3.43835E-11   4.850E-12   4.04373E-09   9.331E-11   3.07912E-12   1.452E-12 
  3.27875E+06   4.00542E-09   9.283E-11   3.28439E-11   4.740E-12   3.96881E-09   9.269E-11   3.76336E-12   1.605E-12 
  3.32958E+06   3.81263E-09   9.048E-11   2.65146E-11   4.259E-12   3.78287E-09   9.037E-11   3.25018E-12   1.491E-12 
  3.38042E+06   3.70760E-09   8.949E-11   2.70278E-11   4.300E-12   3.67783E-09   8.937E-11   2.73699E-12   1.368E-12 
  3.43125E+06   3.63438E-09   8.897E-11   2.44619E-11   4.091E-12   3.60599E-09   8.886E-11   3.93443E-12   1.641E-12 
  3.48208E+06   3.47889E-09   8.718E-11   2.32644E-11   3.990E-12   3.45460E-09   8.708E-11   1.02637E-12   8.380E-13 
  3.53292E+06   3.44553E-09   8.693E-11   2.37776E-11   4.033E-12   3.42021E-09   8.683E-11   1.53956E-12   1.026E-12 
  3.58375E+06   3.21511E-09   8.382E-11   2.06985E-11   3.763E-12   3.19185E-09   8.372E-11   2.56593E-12   1.325E-12 
  3.63458E+06   3.14104E-09   8.273E-11   2.24091E-11   3.916E-12   3.11675E-09   8.263E-11   1.88168E-12   1.135E-12 
  3.68542E+06   3.03618E-09   8.147E-11   2.10406E-11   3.825E-12   3.01377E-09   8.137E-11   1.36850E-12   9.677E-13 
  3.73625E+06   3.04644E-09   8.228E-11   1.81326E-11   3.522E-12   3.02643E-09   8.218E-11   1.88168E-12   1.135E-12 
  3.78708E+06   2.85263E-09   7.936E-11   1.62509E-11   3.335E-12   2.83569E-09   7.929E-11   6.84248E-13   6.842E-13 
  3.83792E+06   2.82954E-09   7.919E-11   1.53956E-11   3.246E-12   2.81311E-09   7.912E-11   1.02637E-12   8.380E-13 
  3.88875E+06   2.72057E-09   7.772E-11   1.45403E-11   3.154E-12   2.70535E-09   7.765E-11   6.84248E-13   6.842E-13 
  3.93958E+06   2.61947E-09   7.628E-11   1.43692E-11   3.136E-12   2.60425E-09   7.621E-11   8.55310E-13   7.650E-13 
  3.99042E+06   2.49220E-09   7.465E-11   1.31718E-11   3.002E-12   2.47869E-09   7.459E-11   3.42124E-13   4.838E-13 
  4.04125E+06   2.45012E-09   7.405E-11   1.33428E-11   3.022E-12   2.43627E-09   7.398E-11   5.13186E-13   5.926E-13 
  4.09208E+06   2.41334E-09   7.432E-11   1.04348E-11   2.672E-12   2.40239E-09   7.427E-11   5.13186E-13   5.926E-13 
  4.14292E+06   2.26366E-09   7.137E-11   8.55310E-12   2.419E-12   2.25443E-09   7.133E-11   6.84248E-13   6.842E-13 
  4.19375E+06   2.13092E-09   6.884E-11   1.04348E-11   2.672E-12   2.12048E-09   6.879E-11   0.00000E+00   0.000E+00 
  4.24458E+06   2.10030E-09   6.869E-11   8.55310E-12   2.419E-12   2.09158E-09   6.865E-11   1.71062E-13   3.421E-13 
  4.29542E+06   2.09140E-09   6.866E-11   6.32929E-12   2.081E-12   2.08507E-09   6.863E-11   0.00000E+00   0.000E+00 
  4.34625E+06   2.04145E-09   6.831E-11   8.21098E-12   2.370E-12   2.03324E-09   6.827E-11   0.00000E+00   0.000E+00 
  4.39708E+06   1.93180E-09   6.611E-11   7.18460E-12   2.217E-12   1.92445E-09   6.607E-11   1.71062E-13   3.421E-13 
  4.44792E+06   1.89913E-09   6.574E-11   7.18460E-12   2.217E-12   1.89177E-09   6.570E-11   1.71062E-13   3.421E-13 
  4.49875E+06   1.80522E-09   6.405E-11   3.25018E-12   1.491E-12   1.80197E-09   6.403E-11   0.00000E+00   0.000E+00 
  4.54958E+06   1.74808E-09   6.327E-11   5.98717E-12   2.024E-12   1.74210E-09   6.324E-11   0.00000E+00   0.000E+00 
  4.60042E+06   1.67812E-09   6.186E-11   4.96080E-12   1.842E-12   1.67316E-09   6.183E-11   0.00000E+00   0.000E+00 
  4.65125E+06   1.56641E-09   5.986E-11   2.73699E-12   1.368E-12   1.56368E-09   5.984E-11   0.00000E+00   0.000E+00 
  4.70208E+06   1.57651E-09   6.032E-11   4.27655E-12   1.711E-12   1.57223E-09   6.030E-11   0.00000E+00   0.000E+00 
  4.75292E+06   1.52878E-09   5.953E-11   3.25018E-12   1.491E-12   1.52536E-09   5.951E-11   1.71062E-13   3.421E-13 
  4.80375E+06   1.40373E-09   5.675E-11   2.73699E-12   1.368E-12   1.40100E-09   5.674E-11   0.00000E+00   0.000E+00 
  4.85458E+06   1.40288E-09   5.693E-11   3.25018E-12   1.491E-12   1.39963E-09   5.691E-11   0.00000E+00   0.000E+00 
  4.90542E+06   1.27835E-09   5.400E-11   2.73699E-12   1.368E-12   1.27561E-09   5.398E-11   0.00000E+00   0.000E+00 
  4.95625E+06   1.27749E-09   5.441E-11   2.39487E-12   1.280E-12   1.27510E-09   5.439E-11   0.00000E+00   0.000E+00 
  5.00708E+06   1.21078E-09   5.299E-11   1.36850E-12   9.677E-13   1.20941E-09   5.298E-11   0.00000E+00   0.000E+00 
  5.05792E+06   1.15125E-09   5.141E-11   1.19743E-12   9.052E-13   1.15005E-09   5.140E-11   0.00000E+00   0.000E+00 
  5.10875E+06   1.06110E-09   4.974E-11   1.53956E-12   1.026E-12   1.05956E-09   4.972E-11   0.00000E+00   0.000E+00 
  5.15958E+06   1.06948E-09   5.090E-11   1.36850E-12   9.677E-13   1.06811E-09   5.089E-11   0.00000E+00   0.000E+00 
  5.21042E+06   1.00225E-09   4.864E-11   5.13186E-13   5.926E-13   1.00174E-09   4.864E-11   0.00000E+00   0.000E+00 
  5.26125E+06   9.51960E-10   4.731E-11   1.71062E-13   3.421E-13   9.51789E-10   4.731E-11   0.00000E+00   0.000E+00 
  5.31208E+06   8.66942E-10   4.511E-11   1.19743E-12   9.052E-13   8.65745E-10   4.510E-11   0.00000E+00   0.000E+00 
  5.36292E+06   8.46415E-10   4.504E-11   6.84248E-13   6.842E-13   8.45731E-10   4.504E-11   0.00000E+00   0.000E+00 
  5.41375E+06   7.85346E-10   4.328E-11   1.71062E-13   3.421E-13   7.85175E-10   4.328E-11   0.00000E+00   0.000E+00 
  5.46458E+06   7.09565E-10   4.118E-11   0.00000E+00   0.000E+00   7.09565E-10   4.118E-11   0.00000E+00   0.000E+00 
  5.51542E+06   6.43535E-10   3.926E-11   3.42124E-13   4.838E-13   6.43193E-10   3.926E-11   0.00000E+00   0.000E+00 
  5.56625E+06   6.42338E-10   3.946E-11   0.00000E+00   0.000E+00   6.42338E-10   3.946E-11   0.00000E+00   0.000E+00 
  5.61708E+06   5.79558E-10   3.770E-11   1.71062E-13   3.421E-13   5.79387E-10   3.770E-11   0.00000E+00   0.000E+00 
  5.66792E+06   5.00870E-10   3.498E-11   0.00000E+00   0.000E+00   5.00870E-10   3.498E-11   0.00000E+00   0.000E+00 
  5.71875E+06   4.67855E-10   3.412E-11   0.00000E+00   0.000E+00   4.67855E-10   3.412E-11   0.00000E+00   0.000E+00 
  5.76958E+06   3.95666E-10   3.138E-11   1.71062E-13   3.421E-13   3.95495E-10   3.138E-11   0.00000E+00   0.000E+00 
  5.82042E+06   3.07056E-10   2.759E-11   1.71062E-13   3.421E-13   3.06885E-10   2.758E-11   0.00000E+00   0.000E+00 
  5.87125E+06   2.55909E-10   2.547E-11   0.00000E+00   0.000E+00   2.55909E-10   2.547E-11   0.00000E+00   0.000E+00 
  5.92208E+06   1.76707E-10   2.143E-11   0.00000E+00   0.000E+00   1.76707E-10   2.143E-11   0.00000E+00   0.000E+00 
  5.97292E+06   7.74911E-11   1.437E-11   0.00000E+00   0.000E+00   7.74911E-11   1.437E-11   0.00000E+00   0.000E+00 
  6.02375E+06   5.13186E-13   1.026E-12   0.00000E+00   0.000E+00   5.13186E-13   1.026E-12   0.00000E+00   0.000E+00 
  6.07458E+06   0.00000E+00   0.000E+00   0.00000E+00   0.000E+00   0.00000E+00   0.000E+00   0.00000E+00   0.000E+00 
