#>>>>>>>>>>>>>>>>>>>>>>>>>>>>>>>>>>>>>>>>>>>>>>>>>>>>>>>>>>>>
# [SECTION REPORT IMPACT DETECTOR - ENERGY SPECTRUM]
# detector number:  2
# Units are 1/(eV*history)
#
# Linear scale
# Energy     min    ,    max    , number of bins
#        3.00000e+04 4.01000e+04    100
#
#             |      Total spectrum     |            electron     |               gamma     |            positron     |
#             |                         |                         |                         |                         |
# Energy (eV) |     prob    : +-2sigma  |     prob    : +-2sigma  |     prob    : +-2sigma  |     prob    : +-2sigma  |
  3.00505E+04   3.56436E-10   2.376E-10   0.00000E+00   0.000E+00   3.56436E-10   2.376E-10   0.00000E+00   0.000E+00 
  3.01515E+04   6.33663E-10   3.168E-10   0.00000E+00   0.000E+00   6.33663E-10   3.168E-10   0.00000E+00   0.000E+00 
  3.02525E+04   7.12871E-10   3.361E-10   0.00000E+00   0.000E+00   7.12871E-10   3.361E-10   0.00000E+00   0.000E+00 
  3.03535E+04   1.10891E-09   4.191E-10   0.00000E+00   0.000E+00   1.10891E-09   4.191E-10   0.00000E+00   0.000E+00 
  3.04545E+04   8.31683E-10   3.630E-10   0.00000E+00   0.000E+00   8.31683E-10   3.630E-10   0.00000E+00   0.000E+00 
  3.05555E+04   6.73267E-10   3.266E-10   0.00000E+00   0.000E+00   6.73267E-10   3.266E-10   0.00000E+00   0.000E+00 
  3.06565E+04   5.94059E-10   3.068E-10   0.00000E+00   0.000E+00   5.94059E-10   3.068E-10   0.00000E+00   0.000E+00 
  3.07575E+04   9.50495E-10   3.880E-10   0.00000E+00   0.000E+00   9.50495E-10   3.880E-10   0.00000E+00   0.000E+00 
  3.08585E+04   1.22772E-09   4.410E-10   0.00000E+00   0.000E+00   1.22772E-09   4.410E-10   0.00000E+00   0.000E+00 
  3.09595E+04   1.30693E-09   4.550E-10   0.00000E+00   0.000E+00   1.30693E-09   4.550E-10   0.00000E+00   0.000E+00 
  3.10605E+04   6.33663E-10   3.168E-10   0.00000E+00   0.000E+00   6.33663E-10   3.168E-10   0.00000E+00   0.000E+00 
  3.11615E+04   5.94059E-10   3.068E-10   0.00000E+00   0.000E+00   5.94059E-10   3.068E-10   0.00000E+00   0.000E+00 
  3.12625E+04   6.33663E-10   3.168E-10   0.00000E+00   0.000E+00   6.33663E-10   3.168E-10   0.00000E+00   0.000E+00 
  3.13635E+04   8.71287E-10   3.715E-10   0.00000E+00   0.000E+00   8.71287E-10   3.715E-10   0.00000E+00   0.000E+00 
  3.14645E+04   7.52475E-10   3.453E-10   0.00000E+00   0.000E+00   7.52475E-10   3.453E-10   0.00000E+00   0.000E+00 
  3.15655E+04   7.92079E-10   3.542E-10   0.00000E+00   0.000E+00   7.92079E-10   3.542E-10   0.00000E+00   0.000E+00 
  3.16665E+04   7.12871E-10   3.361E-10   0.00000E+00   0.000E+00   7.12871E-10   3.361E-10   0.00000E+00   0.000E+00 
  3.17675E+04   1.14851E-09   4.265E-10   0.00000E+00   0.000E+00   1.14851E-09   4.265E-10   0.00000E+00   0.000E+00 
  3.18685E+04   9.10891E-10   3.799E-10   0.00000E+00   0.000E+00   9.10891E-10   3.799E-10   0.00000E+00   0.000E+00 
  3.19695E+04   1.06931E-09   4.116E-10   0.00000E+00   0.000E+00   1.06931E-09   4.116E-10   0.00000E+00   0.000E+00 
  3.20705E+04   1.14851E-09   4.265E-10   0.00000E+00   0.000E+00   1.14851E-09   4.265E-10   0.00000E+00   0.000E+00 
  3.21715E+04   1.62376E-09   5.072E-10   0.00000E+00   0.000E+00   1.62376E-09   5.072E-10   0.00000E+00   0.000E+00 
  3.22725E+04   1.34653E-09   4.619E-10   0.00000E+00   0.000E+00   1.34653E-09   4.619E-10   0.00000E+00   0.000E+00 
  3.23735E+04   1.30693E-09   4.550E-10   0.00000E+00   0.000E+00   1.30693E-09   4.550E-10   0.00000E+00   0.000E+00 
  3.24745E+04   1.74257E-09   5.254E-10   0.00000E+00   0.000E+00   1.74257E-09   5.254E-10   0.00000E+00   0.000E+00 
  3.25755E+04   1.66337E-09   5.133E-10   0.00000E+00   0.000E+00   1.66337E-09   5.133E-10   0.00000E+00   0.000E+00 
  3.26765E+04   2.05941E-09   5.712E-10   0.00000E+00   0.000E+00   2.05941E-09   5.712E-10   0.00000E+00   0.000E+00 
  3.27775E+04   1.58416E-09   5.010E-10   0.00000E+00   0.000E+00   1.58416E-09   5.010E-10   0.00000E+00   0.000E+00 
  3.28785E+04   2.33663E-09   6.084E-10   0.00000E+00   0.000E+00   2.33663E-09   6.084E-10   0.00000E+00   0.000E+00 
  3.29795E+04   2.13861E-09   5.821E-10   0.00000E+00   0.000E+00   2.13861E-09   5.821E-10   0.00000E+00   0.000E+00 
  3.30805E+04   2.97030E-09   6.860E-10   0.00000E+00   0.000E+00   2.97030E-09   6.860E-10   0.00000E+00   0.000E+00 
  3.31815E+04   2.81188E-09   6.674E-10   0.00000E+00   0.000E+00   2.81188E-09   6.674E-10   0.00000E+00   0.000E+00 
  3.32825E+04   2.93069E-09   6.814E-10   0.00000E+00   0.000E+00   2.93069E-09   6.814E-10   0.00000E+00   0.000E+00 
  3.33835E+04   3.52475E-09   7.472E-10   0.00000E+00   0.000E+00   3.52475E-09   7.472E-10   0.00000E+00   0.000E+00 
  3.34845E+04   3.92079E-09   7.881E-10   0.00000E+00   0.000E+00   3.92079E-09   7.881E-10   0.00000E+00   0.000E+00 
  3.35855E+04   3.40594E-09   7.345E-10   0.00000E+00   0.000E+00   3.40594E-09   7.345E-10   0.00000E+00   0.000E+00 
  3.36865E+04   4.47525E-09   8.420E-10   0.00000E+00   0.000E+00   4.47525E-09   8.420E-10   0.00000E+00   0.000E+00 
  3.37875E+04   3.88119E-09   7.841E-10   0.00000E+00   0.000E+00   3.88119E-09   7.841E-10   0.00000E+00   0.000E+00 
  3.38885E+04   4.59406E-09   8.531E-10   0.00000E+00   0.000E+00   4.59406E-09   8.531E-10   0.00000E+00   0.000E+00 
  3.39895E+04   5.02970E-09   8.926E-10   0.00000E+00   0.000E+00   5.02970E-09   8.926E-10   0.00000E+00   0.000E+00 
  3.40905E+04   5.50495E-09   9.338E-10   0.00000E+00   0.000E+00   5.50495E-09   9.338E-10   0.00000E+00   0.000E+00 
  3.41915E+04   6.69307E-09   1.030E-09   0.00000E+00   0.000E+00   6.69307E-09   1.030E-09   0.00000E+00   0.000E+00 
  3.42925E+04   6.77228E-09   1.036E-09   0.00000E+00   0.000E+00   6.77228E-09   1.036E-09   0.00000E+00   0.000E+00 
  3.43935E+04   7.28713E-09   1.074E-09   0.00000E+00   0.000E+00   7.28713E-09   1.074E-09   0.00000E+00   0.000E+00 
  3.44945E+04   7.56436E-09   1.095E-09   0.00000E+00   0.000E+00   7.56436E-09   1.095E-09   0.00000E+00   0.000E+00 
  3.45955E+04   7.96040E-09   1.123E-09   0.00000E+00   0.000E+00   7.96040E-09   1.123E-09   0.00000E+00   0.000E+00 
  3.46965E+04   7.88119E-09   1.117E-09   0.00000E+00   0.000E+00   7.88119E-09   1.117E-09   0.00000E+00   0.000E+00 
  3.47975E+04   8.39604E-09   1.153E-09   0.00000E+00   0.000E+00   8.39604E-09   1.153E-09   0.00000E+00   0.000E+00 
  3.48985E+04   1.25545E-08   1.410E-09   0.00000E+00   0.000E+00   1.25545E-08   1.410E-09   0.00000E+00   0.000E+00 
  3.49995E+04   1.40594E-08   1.492E-09   0.00000E+00   0.000E+00   1.40594E-08   1.492E-09   0.00000E+00   0.000E+00 
  3.51005E+04   1.36634E-08   1.471E-09   0.00000E+00   0.000E+00   1.36634E-08   1.471E-09   0.00000E+00   0.000E+00 
  3.52015E+04   1.53267E-08   1.558E-09   0.00000E+00   0.000E+00   1.53267E-08   1.558E-09   0.00000E+00   0.000E+00 
  3.53025E+04   1.90495E-08   1.737E-09   0.00000E+00   0.000E+00   1.90495E-08   1.737E-09   0.00000E+00   0.000E+00 
  3.54035E+04   2.26931E-08   1.896E-09   0.00000E+00   0.000E+00   2.26931E-08   1.896E-09   0.00000E+00   0.000E+00 
  3.55045E+04   2.55446E-08   2.012E-09   0.00000E+00   0.000E+00   2.55446E-08   2.012E-09   0.00000E+00   0.000E+00 
  3.56055E+04   2.99010E-08   2.176E-09   0.00000E+00   0.000E+00   2.99010E-08   2.176E-09   0.00000E+00   0.000E+00 
  3.57065E+04   3.29505E-08   2.285E-09   0.00000E+00   0.000E+00   3.29505E-08   2.285E-09   0.00000E+00   0.000E+00 
  3.58075E+04   3.80198E-08   2.454E-09   0.00000E+00   0.000E+00   3.80198E-08   2.454E-09   0.00000E+00   0.000E+00 
  3.59085E+04   4.41188E-08   2.644E-09   0.00000E+00   0.000E+00   4.41188E-08   2.644E-09   0.00000E+00   0.000E+00 
  3.60095E+04   5.08911E-08   2.839E-09   0.00000E+00   0.000E+00   5.08911E-08   2.839E-09   0.00000E+00   0.000E+00 
  3.61105E+04   5.84158E-08   3.042E-09   0.00000E+00   0.000E+00   5.84158E-08   3.042E-09   0.00000E+00   0.000E+00 
  3.62115E+04   6.28911E-08   3.156E-09   0.00000E+00   0.000E+00   6.28911E-08   3.156E-09   0.00000E+00   0.000E+00 
  3.63125E+04   7.42178E-08   3.429E-09   0.00000E+00   0.000E+00   7.42178E-08   3.429E-09   0.00000E+00   0.000E+00 
  3.64135E+04   8.17822E-08   3.599E-09   0.00000E+00   0.000E+00   8.17822E-08   3.599E-09   0.00000E+00   0.000E+00 
  3.65145E+04   9.17228E-08   3.812E-09   0.00000E+00   0.000E+00   9.17228E-08   3.812E-09   0.00000E+00   0.000E+00 
  3.66155E+04   9.81782E-08   3.944E-09   0.00000E+00   0.000E+00   9.81782E-08   3.944E-09   0.00000E+00   0.000E+00 
  3.67165E+04   1.10535E-07   4.185E-09   0.00000E+00   0.000E+00   1.10535E-07   4.185E-09   0.00000E+00   0.000E+00 
  3.68175E+04   1.17861E-07   4.321E-09   0.00000E+00   0.000E+00   1.17861E-07   4.321E-09   0.00000E+00   0.000E+00 
  3.69185E+04   1.27525E-07   4.495E-09   0.00000E+00   0.000E+00   1.27525E-07   4.495E-09   0.00000E+00   0.000E+00 
  3.70195E+04   1.28832E-07   4.518E-09   0.00000E+00   0.000E+00   1.28832E-07   4.518E-09   0.00000E+00   0.000E+00 
  3.71205E+04   1.32040E-07   4.573E-09   0.00000E+00   0.000E+00   1.32040E-07   4.573E-09   0.00000E+00   0.000E+00 
  3.72215E+04   1.33426E-07   4.597E-09   0.00000E+00   0.000E+00   1.33426E-07   4.597E-09   0.00000E+00   0.000E+00 
  3.73225E+04   1.30337E-07   4.544E-09   0.00000E+00   0.000E+00   1.30337E-07   4.544E-09   0.00000E+00   0.000E+00 
  3.74235E+04   1.23644E-07   4.426E-09   0.00000E+00   0.000E+00   1.23644E-07   4.426E-09   0.00000E+00   0.000E+00 
  3.75245E+04   1.13228E-07   4.235E-09   0.00000E+00   0.000E+00   1.13228E-07   4.235E-09   0.00000E+00   0.000E+00 
  3.76255E+04   1.10337E-07   4.181E-09   0.00000E+00   0.000E+00   1.10337E-07   4.181E-09   0.00000E+00   0.000E+00 
  3.77265E+04   1.05465E-07   4.087E-09   0.00000E+00   0.000E+00   1.05465E-07   4.087E-09   0.00000E+00   0.000E+00 
  3.78275E+04   9.24356E-08   3.827E-09   0.00000E+00   0.000E+00   9.24356E-08   3.827E-09   0.00000E+00   0.000E+00 
  3.79285E+04   8.38812E-08   3.645E-09   0.00000E+00   0.000E+00   8.38812E-08   3.645E-09   0.00000E+00   0.000E+00 
  3.80295E+04   7.51287E-08   3.450E-09   0.00000E+00   0.000E+00   7.51287E-08   3.450E-09   0.00000E+00   0.000E+00 
  3.81305E+04   6.74059E-08   3.268E-09   0.00000E+00   0.000E+00   6.74059E-08   3.268E-09   0.00000E+00   0.000E+00 
  3.82315E+04   5.89307E-08   3.055E-09   0.00000E+00   0.000E+00   5.89307E-08   3.055E-09   0.00000E+00   0.000E+00 
  3.83325E+04   5.18812E-08   2.867E-09   0.00000E+00   0.000E+00   5.18812E-08   2.867E-09   0.00000E+00   0.000E+00 
  3.84335E+04   4.72871E-08   2.737E-09   0.00000E+00   0.000E+00   4.72871E-08   2.737E-09   0.00000E+00   0.000E+00 
  3.85345E+04   4.11485E-08   2.553E-09   0.00000E+00   0.000E+00   4.11485E-08   2.553E-09   0.00000E+00   0.000E+00 
  3.86355E+04   3.59208E-08   2.385E-09   0.00000E+00   0.000E+00   3.59208E-08   2.385E-09   0.00000E+00   0.000E+00 
  3.87365E+04   2.88317E-08   2.137E-09   0.00000E+00   0.000E+00   2.88317E-08   2.137E-09   0.00000E+00   0.000E+00 
  3.88375E+04   2.68911E-08   2.064E-09   0.00000E+00   0.000E+00   2.68911E-08   2.064E-09   0.00000E+00   0.000E+00 
  3.89385E+04   2.07525E-08   1.813E-09   0.00000E+00   0.000E+00   2.07525E-08   1.813E-09   0.00000E+00   0.000E+00 
  3.90395E+04   1.53267E-08   1.558E-09   0.00000E+00   0.000E+00   1.53267E-08   1.558E-09   0.00000E+00   0.000E+00 
  3.91405E+04   8.00000E-09   1.126E-09   0.00000E+00   0.000E+00   8.00000E-09   1.126E-09   0.00000E+00   0.000E+00 
  3.92415E+04   5.42574E-09   9.271E-10   0.00000E+00   0.000E+00   5.42574E-09   9.271E-10   0.00000E+00   0.000E+00 
  3.93425E+04   4.07921E-09   8.039E-10   0.00000E+00   0.000E+00   4.07921E-09   8.039E-10   0.00000E+00   0.000E+00 
  3.94435E+04   4.07921E-09   8.039E-10   0.00000E+00   0.000E+00   4.07921E-09   8.039E-10   0.00000E+00   0.000E+00 
  3.95445E+04   3.24752E-09   7.173E-10   0.00000E+00   0.000E+00   3.24752E-09   7.173E-10   0.00000E+00   0.000E+00 
  3.96455E+04   2.33663E-09   6.084E-10   0.00000E+00   0.000E+00   2.33663E-09   6.084E-10   0.00000E+00   0.000E+00 
  3.97465E+04   2.13861E-09   5.821E-10   0.00000E+00   0.000E+00   2.13861E-09   5.821E-10   0.00000E+00   0.000E+00 
  3.98475E+04   1.42574E-09   4.752E-10   0.00000E+00   0.000E+00   1.42574E-09   4.752E-10   0.00000E+00   0.000E+00 
  3.99485E+04   9.50495E-10   3.880E-10   0.00000E+00   0.000E+00   9.50495E-10   3.880E-10   0.00000E+00   0.000E+00 
  4.00495E+04   1.50091E-06   1.542E-08   0.00000E+00   0.000E+00   1.50091E-06   1.542E-08   0.00000E+00   0.000E+00 
